                          Elliptical Orbit Data

                          Mstar =      3.100 Msun
                          a     =     20.000 AU
                          P     =     50.796 yr
                          e     =      0.592


        t (yr)            r (AU)            theta (deg)          x (AU)            y (AU)            PE            KE
         ------            ------            -----------           ------           --------           --------           --------
         0.000             8.160                  0.000             8.160             0.000        -4.542e+38         0.000e+00
         0.508             8.299                 17.262             7.925             2.463        -4.466e+38         4.041e+41
         1.016             8.697                 33.491             7.253             4.799        -4.261e+38         4.438e+41
         1.524             9.304                 47.979             6.228             6.912        -3.984e+38         5.079e+41
         2.032            10.059                 60.502             4.953             8.755        -3.685e+38         5.936e+41
         2.540            10.907                 71.178             3.519            10.324        -3.398e+38         6.981e+41
         3.048            11.809                 80.265             1.997            11.639        -3.139e+38         8.182e+41
         3.556            12.733                 88.043             0.435            12.726        -2.911e+38         9.513e+41
         4.064            13.662                 94.761            -1.134            13.615        -2.713e+38         1.095e+42
         4.572            14.582                100.624            -2.688            14.332        -2.542e+38         1.248e+42
         5.080            15.486                105.793            -4.215            14.901        -2.393e+38         1.407e+42
         5.588            16.368                110.396            -5.704            15.341        -2.264e+38         1.572e+42
         6.096            17.225                114.533            -7.152            15.670        -2.152e+38         1.741e+42
         6.604            18.055                118.281            -8.554            15.900        -2.053e+38         1.913e+42
         7.111            18.858                121.704            -9.910            16.044        -1.965e+38         2.086e+42
         7.619            19.632                124.850           -11.218            16.111        -1.888e+38         2.261e+42
         8.127            20.378                127.762           -12.479            16.111        -1.819e+38         2.437e+42
         8.635            21.097                130.470           -13.693            16.049        -1.757e+38         2.611e+42
         9.143            21.788                133.002           -14.860            15.934        -1.701e+38         2.785e+42
         9.651            22.451                135.381           -15.981            15.769        -1.651e+38         2.958e+42
        10.159            23.088                137.626           -17.057            15.561        -1.605e+38         3.128e+42
        10.667            23.699                139.752           -18.089            15.312        -1.564e+38         3.295e+42
        11.175            24.284                141.773           -19.077            15.026        -1.526e+38         3.460e+42
        11.683            24.844                143.701           -20.023            14.708        -1.492e+38         3.622e+42
        12.191            25.380                145.545           -20.927            14.359        -1.460e+38         3.779e+42
        12.699            25.891                147.315           -21.791            13.982        -1.431e+38         3.933e+42
        13.207            26.379                149.017           -22.615            13.579        -1.405e+38         4.083e+42
        13.715            26.843                150.658           -23.400            13.154        -1.381e+38         4.228e+42
        14.223            27.285                152.245           -24.146            12.706        -1.358e+38         4.368e+42
        14.731            27.705                153.783           -24.854            12.239        -1.338e+38         4.504e+42
        15.239            28.102                155.275           -25.526            11.754        -1.319e+38         4.634e+42
        15.747            28.478                156.727           -26.161            11.252        -1.301e+38         4.758e+42
        16.255            28.832                158.142           -26.760            10.734        -1.285e+38         4.878e+42
        16.763            29.166                159.524           -27.323            10.203        -1.271e+38         4.991e+42
        17.271            29.479                160.875           -27.852             9.658        -1.257e+38         5.099e+42
        17.779            29.772                162.198           -28.346             9.102        -1.245e+38         5.201e+42
        18.287            30.044                163.497           -28.806             8.535        -1.234e+38         5.296e+42
        18.795            30.297                164.773           -29.233             7.957        -1.223e+38         5.386e+42
        19.303            30.529                166.028           -29.626             7.371        -1.214e+38         5.469e+42
        19.811            30.743                167.266           -29.987             6.777        -1.206e+38         5.545e+42
        20.319            30.937                168.486           -30.314             6.175        -1.198e+38         5.616e+42
        20.826            31.112                169.693           -30.609             5.567        -1.191e+38         5.679e+42
        21.334            31.267                170.886           -30.873             4.953        -1.185e+38         5.736e+42
        21.842            31.404                172.069           -31.104             4.333        -1.180e+38         5.787e+42
        22.350            31.522                173.241           -31.303             3.710        -1.176e+38         5.830e+42
        22.858            31.621                174.406           -31.471             3.083        -1.172e+38         5.867e+42
        23.366            31.702                175.564           -31.607             2.452        -1.169e+38         5.897e+42
        23.874            31.764                176.716           -31.712             1.819        -1.167e+38         5.920e+42
        24.382            31.808                177.865           -31.786             1.185        -1.165e+38         5.936e+42
        24.890            31.833                179.011           -31.828             0.549        -1.164e+38         5.946e+42
        25.398            31.840                180.156           -31.840            -0.087        -1.164e+38         5.948e+42
        25.906            31.828                181.301           -31.820            -0.723        -1.164e+38         5.944e+42
        26.414            31.798                182.448           -31.769            -1.358        -1.166e+38         5.933e+42
        26.922            31.749                183.597           -31.687            -1.992        -1.167e+38         5.914e+42
        27.430            31.682                184.750           -31.573            -2.624        -1.170e+38         5.889e+42
        27.938            31.596                185.909           -31.428            -3.253        -1.173e+38         5.858e+42
        28.446            31.492                187.075           -31.252            -3.879        -1.177e+38         5.819e+42
        28.954            31.369                188.249           -31.044            -4.501        -1.181e+38         5.774e+42
        29.462            31.227                189.433           -30.805            -5.118        -1.187e+38         5.722e+42
        29.970            31.067                190.629           -30.534            -5.730        -1.193e+38         5.663e+42
        30.478            30.887                191.838           -30.230            -6.336        -1.200e+38         5.598e+42
        30.986            30.688                193.061           -29.894            -6.935        -1.208e+38         5.526e+42
        31.494            30.470                194.301           -29.526            -7.527        -1.216e+38         5.447e+42
        32.002            30.232                195.560           -29.124            -8.110        -1.226e+38         5.363e+42
        32.510            29.975                196.839           -28.690            -8.683        -1.236e+38         5.272e+42
        33.018            29.698                198.142           -28.222            -9.247        -1.248e+38         5.175e+42
        33.526            29.401                199.469           -27.720            -9.799        -1.261e+38         5.072e+42
        34.033            29.083                200.825           -27.183           -10.340        -1.274e+38         4.963e+42
        34.541            28.745                202.212           -26.612           -10.866        -1.289e+38         4.848e+42
        35.049            28.386                203.632           -26.006           -11.379        -1.306e+38         4.728e+42
        35.557            28.006                205.090           -25.363           -11.875        -1.323e+38         4.602e+42
        36.065            27.604                206.588           -24.685           -12.355        -1.343e+38         4.471e+42
        36.573            27.181                208.133           -23.970           -12.816        -1.364e+38         4.335e+42
        37.081            26.735                209.727           -23.217           -13.257        -1.386e+38         4.194e+42
        37.589            26.267                211.376           -22.426           -13.676        -1.411e+38         4.048e+42
        38.097            25.775                213.087           -21.596           -14.071        -1.438e+38         3.898e+42
        38.605            25.261                214.866           -20.726           -14.440        -1.467e+38         3.744e+42
        39.113            24.722                216.720           -19.816           -14.781        -1.499e+38         3.586e+42
        39.621            24.159                218.658           -18.866           -15.092        -1.534e+38         3.425e+42
        40.129            23.571                220.691           -17.873           -15.368        -1.572e+38         3.260e+42
        40.637            22.958                222.829           -16.837           -15.607        -1.614e+38         3.093e+42
        41.145            22.320                225.087           -15.758           -15.806        -1.661e+38         2.923e+42
        41.653            21.655                227.481           -14.635           -15.961        -1.711e+38         2.751e+42
        42.161            20.963                230.028           -13.467           -16.065        -1.768e+38         2.578e+42
        42.669            20.245                232.753           -12.253           -16.115        -1.831e+38         2.405e+42
        43.177            19.499                235.681           -10.993           -16.104        -1.901e+38         2.231e+42
        43.685            18.726                238.846            -9.688           -16.025        -1.979e+38         2.057e+42
        44.193            17.926                242.287            -8.336           -15.869        -2.068e+38         1.885e+42
        44.701            17.099                246.055            -6.940           -15.627        -2.167e+38         1.716e+42
        45.209            16.247                250.210            -5.501           -15.288        -2.281e+38         1.549e+42
        45.717            15.372                254.830            -4.023           -14.836        -2.411e+38         1.386e+42
        46.225            14.477                260.013            -2.511           -14.258        -2.560e+38         1.230e+42
        46.733            13.567                265.883            -0.974           -13.532        -2.732e+38         1.080e+42
        47.241            12.651                272.597             0.573           -12.638        -2.929e+38         9.391e+41
        47.748            11.742                280.353             2.110           -11.550        -3.156e+38         8.089e+41
        48.256            10.857                289.390             3.605           -10.241        -3.414e+38         6.916e+41
        48.764            10.025                299.980             5.010            -8.684        -3.697e+38         5.897e+41
        49.272             9.286                312.377             6.259            -6.860        -3.991e+38         5.059e+41
        49.780             8.690                326.710             7.264            -4.770        -4.265e+38         4.431e+41
        50.288             8.298                342.802             7.927            -2.453        -4.466e+38         4.040e+41
        50.796             8.160                360.008             8.160             0.001        -4.542e+38         3.907e+41
